ALV-7004 or ALV-7004/FAST Data
Date :	"04.06.2015"
Time :	"16:03:30"
Samplename : 	""
SampMemo(0) : 	""
SampMemo(1) : 	""
SampMemo(2) : 	""
SampMemo(3) : 	""
SampMemo(4) : 	""
SampMemo(5) : 	""
SampMemo(6) : 	""
SampMemo(7) : 	""
SampMemo(8) : 	""
SampMemo(9) : 	""
Temperature [K] :	     297.93835
Viscosity [cp]  :	       0.89000
Refractive Index:	       1.33200
Wavelength [nm] :	     632.80000
Angle [°]       :	      32.50000
Duration [s]    :	        36
Runs            :	         1
Mode            :	"C-CH0/1+1/0 "
MeanCR0 [kHz]   :	     966.90088
MeanCR1 [kHz]   :	     842.12323
MeanCR2 [kHz]   :	       0.00000
MeanCR3 [kHz]   :	       0.00000

"Correlation"
  2.50000E-005	  2.72897E-001	  2.72560E-001	  0.00000E+000	  0.00000E+000
  5.00000E-005	  2.73666E-001	  2.72921E-001	  0.00000E+000	  0.00000E+000
  7.50000E-005	  2.74735E-001	  2.74575E-001	  0.00000E+000	  0.00000E+000
  1.00000E-004	  2.74000E-001	  2.73789E-001	  0.00000E+000	  0.00000E+000
  1.25000E-004	  2.72961E-001	  2.72484E-001	  0.00000E+000	  0.00000E+000
  1.50000E-004	  2.73148E-001	  2.74414E-001	  0.00000E+000	  0.00000E+000
  1.75000E-004	  2.73263E-001	  2.73345E-001	  0.00000E+000	  0.00000E+000
  2.00000E-004	  2.73285E-001	  2.73868E-001	  0.00000E+000	  0.00000E+000
  2.25000E-004	  2.73614E-001	  2.72419E-001	  0.00000E+000	  0.00000E+000
  2.50000E-004	  2.71873E-001	  2.71925E-001	  0.00000E+000	  0.00000E+000
  2.75000E-004	  2.72154E-001	  2.72190E-001	  0.00000E+000	  0.00000E+000
  3.00000E-004	  2.71497E-001	  2.71103E-001	  0.00000E+000	  0.00000E+000
  3.25000E-004	  2.72738E-001	  2.72363E-001	  0.00000E+000	  0.00000E+000
  3.50000E-004	  2.73038E-001	  2.71986E-001	  0.00000E+000	  0.00000E+000
  3.75000E-004	  2.72202E-001	  2.70843E-001	  0.00000E+000	  0.00000E+000
  4.00000E-004	  2.72618E-001	  2.71614E-001	  0.00000E+000	  0.00000E+000
  4.50000E-004	  2.73196E-001	  2.72588E-001	  0.00000E+000	  0.00000E+000
  5.00000E-004	  2.73083E-001	  2.73625E-001	  0.00000E+000	  0.00000E+000
  5.50000E-004	  2.73153E-001	  2.72682E-001	  0.00000E+000	  0.00000E+000
  6.00000E-004	  2.73487E-001	  2.73161E-001	  0.00000E+000	  0.00000E+000
  6.50000E-004	  2.73197E-001	  2.73775E-001	  0.00000E+000	  0.00000E+000
  7.00000E-004	  2.72328E-001	  2.71748E-001	  0.00000E+000	  0.00000E+000
  7.50000E-004	  2.72473E-001	  2.73250E-001	  0.00000E+000	  0.00000E+000
  8.00000E-004	  2.73002E-001	  2.72605E-001	  0.00000E+000	  0.00000E+000
  9.00000E-004	  2.72930E-001	  2.72911E-001	  0.00000E+000	  0.00000E+000
  1.00000E-003	  2.73336E-001	  2.73107E-001	  0.00000E+000	  0.00000E+000
  1.10000E-003	  2.73237E-001	  2.73508E-001	  0.00000E+000	  0.00000E+000
  1.20000E-003	  2.72815E-001	  2.72547E-001	  0.00000E+000	  0.00000E+000
  1.30000E-003	  2.72829E-001	  2.73077E-001	  0.00000E+000	  0.00000E+000
  1.40000E-003	  2.72316E-001	  2.72661E-001	  0.00000E+000	  0.00000E+000
  1.50000E-003	  2.73149E-001	  2.74072E-001	  0.00000E+000	  0.00000E+000
  1.60000E-003	  2.73163E-001	  2.73311E-001	  0.00000E+000	  0.00000E+000
  1.80000E-003	  2.72906E-001	  2.73114E-001	  0.00000E+000	  0.00000E+000
  2.00000E-003	  2.72898E-001	  2.72901E-001	  0.00000E+000	  0.00000E+000
  2.20000E-003	  2.72821E-001	  2.73029E-001	  0.00000E+000	  0.00000E+000
  2.40000E-003	  2.73391E-001	  2.73285E-001	  0.00000E+000	  0.00000E+000
  2.60000E-003	  2.73393E-001	  2.73880E-001	  0.00000E+000	  0.00000E+000
  2.80000E-003	  2.72435E-001	  2.72539E-001	  0.00000E+000	  0.00000E+000
  3.00000E-003	  2.73215E-001	  2.73526E-001	  0.00000E+000	  0.00000E+000
  3.20000E-003	  2.72894E-001	  2.73150E-001	  0.00000E+000	  0.00000E+000
  3.60000E-003	  2.72788E-001	  2.72829E-001	  0.00000E+000	  0.00000E+000
  4.00000E-003	  2.72624E-001	  2.72552E-001	  0.00000E+000	  0.00000E+000
  4.40000E-003	  2.73123E-001	  2.73398E-001	  0.00000E+000	  0.00000E+000
  4.80000E-003	  2.72618E-001	  2.72790E-001	  0.00000E+000	  0.00000E+000
  5.20000E-003	  2.73039E-001	  2.73032E-001	  0.00000E+000	  0.00000E+000
  5.60000E-003	  2.72806E-001	  2.72888E-001	  0.00000E+000	  0.00000E+000
  6.00000E-003	  2.73050E-001	  2.72910E-001	  0.00000E+000	  0.00000E+000
  6.40000E-003	  2.72578E-001	  2.72544E-001	  0.00000E+000	  0.00000E+000
  7.20000E-003	  2.73049E-001	  2.73037E-001	  0.00000E+000	  0.00000E+000
  8.00000E-003	  2.72989E-001	  2.73047E-001	  0.00000E+000	  0.00000E+000
  8.80000E-003	  2.72793E-001	  2.73073E-001	  0.00000E+000	  0.00000E+000
  9.60000E-003	  2.72791E-001	  2.72665E-001	  0.00000E+000	  0.00000E+000
  1.04000E-002	  2.72798E-001	  2.72974E-001	  0.00000E+000	  0.00000E+000
  1.12000E-002	  2.72903E-001	  2.72697E-001	  0.00000E+000	  0.00000E+000
  1.20000E-002	  2.72800E-001	  2.72642E-001	  0.00000E+000	  0.00000E+000
  1.28000E-002	  2.72811E-001	  2.72791E-001	  0.00000E+000	  0.00000E+000
  1.44000E-002	  2.72579E-001	  2.72560E-001	  0.00000E+000	  0.00000E+000
  1.60000E-002	  2.72703E-001	  2.72745E-001	  0.00000E+000	  0.00000E+000
  1.76000E-002	  2.72531E-001	  2.72469E-001	  0.00000E+000	  0.00000E+000
  1.92000E-002	  2.72554E-001	  2.72576E-001	  0.00000E+000	  0.00000E+000
  2.08000E-002	  2.72644E-001	  2.72735E-001	  0.00000E+000	  0.00000E+000
  2.24000E-002	  2.72683E-001	  2.72651E-001	  0.00000E+000	  0.00000E+000
  2.40000E-002	  2.72404E-001	  2.72400E-001	  0.00000E+000	  0.00000E+000
  2.56000E-002	  2.72513E-001	  2.72528E-001	  0.00000E+000	  0.00000E+000
  2.88000E-002	  2.72614E-001	  2.72726E-001	  0.00000E+000	  0.00000E+000
  3.20000E-002	  2.72426E-001	  2.72487E-001	  0.00000E+000	  0.00000E+000
  3.52000E-002	  2.72357E-001	  2.72402E-001	  0.00000E+000	  0.00000E+000
  3.84000E-002	  2.72254E-001	  2.72355E-001	  0.00000E+000	  0.00000E+000
  4.16000E-002	  2.72250E-001	  2.72270E-001	  0.00000E+000	  0.00000E+000
  4.48000E-002	  2.72200E-001	  2.72183E-001	  0.00000E+000	  0.00000E+000
  4.80000E-002	  2.72236E-001	  2.72205E-001	  0.00000E+000	  0.00000E+000
  5.12000E-002	  2.72034E-001	  2.72058E-001	  0.00000E+000	  0.00000E+000
  5.76000E-002	  2.71972E-001	  2.71921E-001	  0.00000E+000	  0.00000E+000
  6.40000E-002	  2.71936E-001	  2.71924E-001	  0.00000E+000	  0.00000E+000
  7.04000E-002	  2.71832E-001	  2.71810E-001	  0.00000E+000	  0.00000E+000
  7.68000E-002	  2.71576E-001	  2.71504E-001	  0.00000E+000	  0.00000E+000
  8.32000E-002	  2.71542E-001	  2.71565E-001	  0.00000E+000	  0.00000E+000
  8.96000E-002	  2.71453E-001	  2.71445E-001	  0.00000E+000	  0.00000E+000
  9.60000E-002	  2.71383E-001	  2.71324E-001	  0.00000E+000	  0.00000E+000
  1.02400E-001	  2.71233E-001	  2.71215E-001	  0.00000E+000	  0.00000E+000
  1.15200E-001	  2.71111E-001	  2.71126E-001	  0.00000E+000	  0.00000E+000
  1.28000E-001	  2.70873E-001	  2.70884E-001	  0.00000E+000	  0.00000E+000
  1.40800E-001	  2.70595E-001	  2.70615E-001	  0.00000E+000	  0.00000E+000
  1.53600E-001	  2.70402E-001	  2.70401E-001	  0.00000E+000	  0.00000E+000
  1.66400E-001	  2.70227E-001	  2.70279E-001	  0.00000E+000	  0.00000E+000
  1.79200E-001	  2.70039E-001	  2.70102E-001	  0.00000E+000	  0.00000E+000
  1.92000E-001	  2.69856E-001	  2.69820E-001	  0.00000E+000	  0.00000E+000
  2.04800E-001	  2.69646E-001	  2.69660E-001	  0.00000E+000	  0.00000E+000
  2.30400E-001	  2.69276E-001	  2.69322E-001	  0.00000E+000	  0.00000E+000
  2.56000E-001	  2.68850E-001	  2.68933E-001	  0.00000E+000	  0.00000E+000
  2.81600E-001	  2.68470E-001	  2.68540E-001	  0.00000E+000	  0.00000E+000
  3.07200E-001	  2.68032E-001	  2.68050E-001	  0.00000E+000	  0.00000E+000
  3.32800E-001	  2.67640E-001	  2.67634E-001	  0.00000E+000	  0.00000E+000
  3.58400E-001	  2.67248E-001	  2.67258E-001	  0.00000E+000	  0.00000E+000
  3.84000E-001	  2.66883E-001	  2.66912E-001	  0.00000E+000	  0.00000E+000
  4.09600E-001	  2.66498E-001	  2.66521E-001	  0.00000E+000	  0.00000E+000
  4.60800E-001	  2.65691E-001	  2.65700E-001	  0.00000E+000	  0.00000E+000
  5.12000E-001	  2.64920E-001	  2.64954E-001	  0.00000E+000	  0.00000E+000
  5.63200E-001	  2.64143E-001	  2.64145E-001	  0.00000E+000	  0.00000E+000
  6.14400E-001	  2.63372E-001	  2.63415E-001	  0.00000E+000	  0.00000E+000
  6.65600E-001	  2.62584E-001	  2.62627E-001	  0.00000E+000	  0.00000E+000
  7.16800E-001	  2.61825E-001	  2.61886E-001	  0.00000E+000	  0.00000E+000
  7.68000E-001	  2.61059E-001	  2.61095E-001	  0.00000E+000	  0.00000E+000
  8.19200E-001	  2.60366E-001	  2.60411E-001	  0.00000E+000	  0.00000E+000
  9.21600E-001	  2.58842E-001	  2.58909E-001	  0.00000E+000	  0.00000E+000
  1.02400E+000	  2.57368E-001	  2.57438E-001	  0.00000E+000	  0.00000E+000
  1.12640E+000	  2.55887E-001	  2.55956E-001	  0.00000E+000	  0.00000E+000
  1.22880E+000	  2.54417E-001	  2.54504E-001	  0.00000E+000	  0.00000E+000
  1.33120E+000	  2.52951E-001	  2.53036E-001	  0.00000E+000	  0.00000E+000
  1.43360E+000	  2.51495E-001	  2.51597E-001	  0.00000E+000	  0.00000E+000
  1.53600E+000	  2.50089E-001	  2.50230E-001	  0.00000E+000	  0.00000E+000
  1.63840E+000	  2.48589E-001	  2.48724E-001	  0.00000E+000	  0.00000E+000
  1.84320E+000	  2.45780E-001	  2.45927E-001	  0.00000E+000	  0.00000E+000
  2.04800E+000	  2.43012E-001	  2.43197E-001	  0.00000E+000	  0.00000E+000
  2.25280E+000	  2.40289E-001	  2.40499E-001	  0.00000E+000	  0.00000E+000
  2.45760E+000	  2.37640E-001	  2.37880E-001	  0.00000E+000	  0.00000E+000
  2.66240E+000	  2.34980E-001	  2.35209E-001	  0.00000E+000	  0.00000E+000
  2.86720E+000	  2.32419E-001	  2.32676E-001	  0.00000E+000	  0.00000E+000
  3.07200E+000	  2.29875E-001	  2.30166E-001	  0.00000E+000	  0.00000E+000
  3.27680E+000	  2.27395E-001	  2.27717E-001	  0.00000E+000	  0.00000E+000
  3.68640E+000	  2.22566E-001	  2.22929E-001	  0.00000E+000	  0.00000E+000
  4.09600E+000	  2.17879E-001	  2.18315E-001	  0.00000E+000	  0.00000E+000
  4.50560E+000	  2.13349E-001	  2.13839E-001	  0.00000E+000	  0.00000E+000
  4.91520E+000	  2.08980E-001	  2.09531E-001	  0.00000E+000	  0.00000E+000
  5.32480E+000	  2.04689E-001	  2.05323E-001	  0.00000E+000	  0.00000E+000
  5.73440E+000	  2.00435E-001	  2.01137E-001	  0.00000E+000	  0.00000E+000
  6.14400E+000	  1.96304E-001	  1.97063E-001	  0.00000E+000	  0.00000E+000
  6.55360E+000	  1.92311E-001	  1.93150E-001	  0.00000E+000	  0.00000E+000
  7.37280E+000	  1.84501E-001	  1.85422E-001	  0.00000E+000	  0.00000E+000
  8.19200E+000	  1.77005E-001	  1.77982E-001	  0.00000E+000	  0.00000E+000
  9.01120E+000	  1.69763E-001	  1.70812E-001	  0.00000E+000	  0.00000E+000
  9.83040E+000	  1.62868E-001	  1.64003E-001	  0.00000E+000	  0.00000E+000
  1.06496E+001	  1.56386E-001	  1.57672E-001	  0.00000E+000	  0.00000E+000
  1.14688E+001	  1.50420E-001	  1.51825E-001	  0.00000E+000	  0.00000E+000
  1.22880E+001	  1.44598E-001	  1.46101E-001	  0.00000E+000	  0.00000E+000
  1.31072E+001	  1.38846E-001	  1.40380E-001	  0.00000E+000	  0.00000E+000
  1.47456E+001	  1.27904E-001	  1.29492E-001	  0.00000E+000	  0.00000E+000
  1.63840E+001	  1.17936E-001	  1.19573E-001	  0.00000E+000	  0.00000E+000
  1.80224E+001	  1.08088E-001	  1.09716E-001	  0.00000E+000	  0.00000E+000
  1.96608E+001	  9.85703E-002	  1.00012E-001	  0.00000E+000	  0.00000E+000
  2.12992E+001	  8.96048E-002	  9.08719E-002	  0.00000E+000	  0.00000E+000
  2.29376E+001	  8.13175E-002	  8.24689E-002	  0.00000E+000	  0.00000E+000
  2.45760E+001	  7.38175E-002	  7.48632E-002	  0.00000E+000	  0.00000E+000
  2.62144E+001	  6.74246E-002	  6.83616E-002	  0.00000E+000	  0.00000E+000
  2.94912E+001	  5.57629E-002	  5.65147E-002	  0.00000E+000	  0.00000E+000
  3.27680E+001	  4.66173E-002	  4.70328E-002	  0.00000E+000	  0.00000E+000
  3.60448E+001	  4.01735E-002	  4.04024E-002	  0.00000E+000	  0.00000E+000
  3.93216E+001	  3.52690E-002	  3.53116E-002	  0.00000E+000	  0.00000E+000
  4.25984E+001	  3.08554E-002	  3.08290E-002	  0.00000E+000	  0.00000E+000
  4.58752E+001	  2.60004E-002	  2.57857E-002	  0.00000E+000	  0.00000E+000
  4.91520E+001	  2.15913E-002	  2.11951E-002	  0.00000E+000	  0.00000E+000
  5.24288E+001	  1.87561E-002	  1.85130E-002	  0.00000E+000	  0.00000E+000
  5.89824E+001	  1.55894E-002	  1.53128E-002	  0.00000E+000	  0.00000E+000
  6.55360E+001	  1.50247E-002	  1.44250E-002	  0.00000E+000	  0.00000E+000
  7.20896E+001	  1.30298E-002	  1.24805E-002	  0.00000E+000	  0.00000E+000
  7.86432E+001	  1.02319E-002	  9.80144E-003	  0.00000E+000	  0.00000E+000
  8.51968E+001	  7.30191E-003	  7.14481E-003	  0.00000E+000	  0.00000E+000
  9.17504E+001	  6.16812E-003	  6.98356E-003	  0.00000E+000	  0.00000E+000
  9.83040E+001	  2.85902E-003	  4.89169E-003	  0.00000E+000	  0.00000E+000
  1.04858E+002	  2.41602E-003	  4.76104E-003	  0.00000E+000	  0.00000E+000
  1.17965E+002	  2.77599E-005	  3.50157E-003	  0.00000E+000	  0.00000E+000
  1.31072E+002	 -3.09295E-004	  4.13749E-003	  0.00000E+000	  0.00000E+000
  1.44179E+002	  1.39252E-003	  6.75696E-003	  0.00000E+000	  0.00000E+000
  1.57286E+002	  3.45257E-003	  9.17356E-003	  0.00000E+000	  0.00000E+000
  1.70394E+002	  5.55014E-003	  1.07722E-002	  0.00000E+000	  0.00000E+000
  1.83501E+002	  5.53569E-003	  8.34240E-003	  0.00000E+000	  0.00000E+000
  1.96608E+002	  6.86797E-003	  9.09972E-003	  0.00000E+000	  0.00000E+000
  2.09715E+002	  2.23092E-003	  5.63311E-003	  0.00000E+000	  0.00000E+000
  2.35930E+002	 -2.39936E-003	  1.72114E-003	  0.00000E+000	  0.00000E+000
  2.62144E+002	 -4.33035E-003	 -1.69552E-003	  0.00000E+000	  0.00000E+000
  2.88358E+002	 -6.83144E-004	  1.80906E-003	  0.00000E+000	  0.00000E+000
  3.14573E+002	 -6.08214E-003	 -4.37886E-003	  0.00000E+000	  0.00000E+000
  3.40787E+002	 -1.37695E-002	 -1.45888E-002	  0.00000E+000	  0.00000E+000
  3.67002E+002	 -3.41677E-003	 -7.02775E-003	  0.00000E+000	  0.00000E+000
  3.93216E+002	  3.56841E-003	  1.73013E-003	  0.00000E+000	  0.00000E+000
  4.19430E+002	  1.32055E-003	  1.03714E-003	  0.00000E+000	  0.00000E+000
  4.71859E+002	 -8.10734E-003	 -9.72853E-003	  0.00000E+000	  0.00000E+000
  5.24288E+002	 -2.63320E-003	 -5.35650E-003	  0.00000E+000	  0.00000E+000
  5.76717E+002	  7.24497E-003	  5.33404E-003	  0.00000E+000	  0.00000E+000
  6.29146E+002	 -3.44312E-003	 -6.15865E-003	  0.00000E+000	  0.00000E+000
  6.81574E+002	  3.28144E-003	  7.94962E-004	  0.00000E+000	  0.00000E+000
  7.34003E+002	 -2.86487E-003	 -6.21777E-003	  0.00000E+000	  0.00000E+000
  7.86432E+002	  5.49980E-004	  1.30896E-004	  0.00000E+000	  0.00000E+000
  8.38861E+002	 -1.66447E-003	  5.71738E-004	  0.00000E+000	  0.00000E+000
  9.43718E+002	 -1.20289E-003	 -1.50541E-003	  0.00000E+000	  0.00000E+000
  1.04858E+003	 -1.17282E-003	  1.88211E-003	  0.00000E+000	  0.00000E+000
  1.15343E+003	 -2.56240E-003	 -1.64910E-003	  0.00000E+000	  0.00000E+000
  1.25829E+003	 -5.07093E-003	 -7.02950E-003	  0.00000E+000	  0.00000E+000
  1.36315E+003	  1.76880E-003	  1.25948E-003	  0.00000E+000	  0.00000E+000
  1.46801E+003	  7.89102E-003	  8.30605E-003	  0.00000E+000	  0.00000E+000
  1.57286E+003	  1.16161E-002	  8.76073E-003	  0.00000E+000	  0.00000E+000
  1.67772E+003	  4.46643E-004	 -5.38036E-004	  0.00000E+000	  0.00000E+000
  1.88744E+003	 -4.73838E-003	 -4.29205E-003	  0.00000E+000	  0.00000E+000
  2.09715E+003	 -6.00328E-003	 -6.92457E-003	  0.00000E+000	  0.00000E+000
  2.30687E+003	 -2.15290E-003	 -3.66481E-004	  0.00000E+000	  0.00000E+000
  2.51658E+003	 -8.08258E-003	 -8.87390E-003	  0.00000E+000	  0.00000E+000
  2.72630E+003	 -4.15408E-003	 -4.18690E-003	  0.00000E+000	  0.00000E+000
  2.93601E+003	  1.28546E-003	  5.73177E-004	  0.00000E+000	  0.00000E+000
  3.14573E+003	 -1.62804E-003	 -1.09538E-004	  0.00000E+000	  0.00000E+000
  3.35544E+003	  2.62536E-003	  2.69420E-003	  0.00000E+000	  0.00000E+000
  3.77487E+003	  1.11162E-003	  2.47727E-003	  0.00000E+000	  0.00000E+000
  4.19430E+003	  1.32093E-003	  2.01796E-003	  0.00000E+000	  0.00000E+000
  4.61373E+003	  9.41170E-004	 -1.83522E-004	  0.00000E+000	  0.00000E+000
  5.03317E+003	 -4.72227E-003	 -3.10954E-003	  0.00000E+000	  0.00000E+000
  5.45260E+003	 -3.33610E-003	 -1.91816E-003	  0.00000E+000	  0.00000E+000
  5.87203E+003	  3.19632E-003	  2.79019E-003	  0.00000E+000	  0.00000E+000

"Count Rate"
       0.14063	     950.43555	     787.54718	       0.00000	       0.00000
       0.28125	    1007.30219	     968.25391	       0.00000	       0.00000
       0.42188	     861.83417	     825.30194	       0.00000	       0.00000
       0.56250	    1079.22241	     889.53186	       0.00000	       0.00000
       0.70313	     625.98083	     428.18784	       0.00000	       0.00000
       0.84375	     772.83478	     655.91028	       0.00000	       0.00000
       0.98438	     953.10083	     814.41333	       0.00000	       0.00000
       1.12500	     535.17615	     442.39560	       0.00000	       0.00000
       1.26563	    1153.89319	     928.88580	       0.00000	       0.00000
       1.40625	     806.57379	     645.36279	       0.00000	       0.00000
       1.54688	    1036.69141	     923.44147	       0.00000	       0.00000
       1.68750	     944.67853	     951.48743	       0.00000	       0.00000
       1.82813	    1186.75793	    1048.25525	       0.00000	       0.00000
       1.96875	    1032.83923	     971.94977	       0.00000	       0.00000
       2.10938	    1004.55164	     694.26202	       0.00000	       0.00000
       2.25000	    1145.03735	     860.58325	       0.00000	       0.00000
       2.39063	     776.23926	     563.99683	       0.00000	       0.00000
       2.53125	    1382.26953	    1260.67542	       0.00000	       0.00000
       2.67188	     937.69189	     695.22150	       0.00000	       0.00000
       2.81250	     710.99292	     521.48724	       0.00000	       0.00000
       2.95313	    1038.24805	     828.34393	       0.00000	       0.00000
       3.09375	     890.86096	     841.82672	       0.00000	       0.00000
       3.23438	     870.48395	     698.24927	       0.00000	       0.00000
       3.37500	     718.37048	     693.83557	       0.00000	       0.00000
       3.51563	    1261.47852	    1078.61829	       0.00000	       0.00000
       3.65625	     865.53717	     675.33490	       0.00000	       0.00000
       3.79688	    1053.96960	     789.84290	       0.00000	       0.00000
       3.93750	     845.73584	     686.80634	       0.00000	       0.00000
       4.07813	     980.46448	     860.59039	       0.00000	       0.00000
       4.21875	    1411.38159	    1024.97131	       0.00000	       0.00000
       4.35938	    1013.25824	     800.95184	       0.00000	       0.00000
       4.50000	    1150.14050	    1029.97498	       0.00000	       0.00000
       4.64063	    1011.63062	     746.03973	       0.00000	       0.00000
       4.78125	    1042.71863	     822.25281	       0.00000	       0.00000
       4.92188	    1168.37097	    1026.35010	       0.00000	       0.00000
       5.06250	    1523.11060	    1308.19568	       0.00000	       0.00000
       5.20313	    1179.85669	     973.77637	       0.00000	       0.00000
       5.34375	    1151.66858	    1018.78070	       0.00000	       0.00000
       5.48438	    1887.06128	    1322.56702	       0.00000	       0.00000
       5.62500	     892.28955	     843.25531	       0.00000	       0.00000
       5.76563	     959.34119	     860.08575	       0.00000	       0.00000
       5.90625	     820.77448	     622.99573	       0.00000	       0.00000
       6.04688	    1230.09912	     961.66528	       0.00000	       0.00000
       6.18750	     873.75336	     726.14600	       0.00000	       0.00000
       6.32813	    1279.70911	    1014.15375	       0.00000	       0.00000
       6.46875	    1163.45264	    1361.51575	       0.00000	       0.00000
       6.60938	     959.90979	     872.18970	       0.00000	       0.00000
       6.75000	     880.89636	     722.18713	       0.00000	       0.00000
       6.89063	     853.35498	     633.90564	       0.00000	       0.00000
       7.03125	    1764.78491	    1399.11414	       0.00000	       0.00000
       7.17188	     767.61792	     625.04266	       0.00000	       0.00000
       7.31250	     781.68353	     627.23175	       0.00000	       0.00000
       7.45313	     779.16754	     676.82037	       0.00000	       0.00000
       7.59375	     512.51764	     410.40500	       0.00000	       0.00000
       7.73438	     926.54034	     689.00964	       0.00000	       0.00000
       7.87500	     664.90826	     500.91116	       0.00000	       0.00000
       8.01563	     893.17090	     647.50928	       0.00000	       0.00000
       8.15625	    1021.53131	     812.84967	       0.00000	       0.00000
       8.29688	    1143.02588	     885.18213	       0.00000	       0.00000
       8.43750	    1690.76794	    1313.82483	       0.00000	       0.00000
       8.57813	    1400.93359	    1199.44482	       0.00000	       0.00000
       8.71875	    1230.56116	    1067.71545	       0.00000	       0.00000
       8.85938	    1060.79285	     856.91583	       0.00000	       0.00000
       9.00000	     958.53094	     850.45514	       0.00000	       0.00000
       9.14063	    1134.20557	     979.47656	       0.00000	       0.00000
       9.28125	     859.01251	     740.52435	       0.00000	       0.00000
       9.42188	    1175.89075	     875.14642	       0.00000	       0.00000
       9.56250	    1339.63904	    1117.74475	       0.00000	       0.00000
       9.70313	     767.64636	     655.36298	       0.00000	       0.00000
       9.84375	    1331.84216	     892.17584	       0.00000	       0.00000
       9.98438	    1821.99976	    1553.13953	       0.00000	       0.00000
      10.12500	    1276.31177	     925.95752	       0.00000	       0.00000
      10.26563	     578.01984	     549.34839	       0.00000	       0.00000
      10.40625	     562.60376	     451.74188	       0.00000	       0.00000
      10.54688	     841.21552	     682.69824	       0.00000	       0.00000
      10.68750	    1188.74805	     949.16333	       0.00000	       0.00000
      10.82813	    1005.46844	    1062.30664	       0.00000	       0.00000
      10.96875	     845.77844	     630.69305	       0.00000	       0.00000
      11.10938	    1598.79773	    1003.33624	       0.00000	       0.00000
      11.25000	    1319.06299	    1101.61084	       0.00000	       0.00000
      11.39063	     937.20862	     735.44965	       0.00000	       0.00000
      11.53125	     628.90912	     529.67499	       0.00000	       0.00000
      11.67188	     914.87701	     782.37299	       0.00000	       0.00000
      11.81250	     778.96851	     688.41260	       0.00000	       0.00000
      11.95313	    1019.75439	     798.79114	       0.00000	       0.00000
      12.09375	    1401.67993	    1170.97949	       0.00000	       0.00000
      12.23438	    1178.05847	     919.75275	       0.00000	       0.00000
      12.37500	    1045.48340	     927.21552	       0.00000	       0.00000
      12.51563	    1247.05042	    1066.28687	       0.00000	       0.00000
      12.65625	    1105.11475	     894.49286	       0.00000	       0.00000
      12.79688	    1263.43311	     918.06824	       0.00000	       0.00000
      12.93750	    1327.58484	     966.00793	       0.00000	       0.00000
      13.07813	    1124.56787	     941.50861	       0.00000	       0.00000
      13.21875	     957.18762	     672.65540	       0.00000	       0.00000
      13.35938	    1044.01929	     793.06256	       0.00000	       0.00000
      13.50000	    1391.28882	    1290.29919	       0.00000	       0.00000
      13.64063	     858.40839	     843.12030	       0.00000	       0.00000
      13.78125	     541.58704	     467.17926	       0.00000	       0.00000
      13.92188	    1221.28589	    1017.06781	       0.00000	       0.00000
      14.06250	     899.98694	     655.88184	       0.00000	       0.00000
      14.20313	    1080.57996	     946.34167	       0.00000	       0.00000
      14.34375	    1509.13733	    1335.29639	       0.00000	       0.00000
      14.48438	     949.81012	     794.59070	       0.00000	       0.00000
      14.62500	    1026.98267	     852.67981	       0.00000	       0.00000
      14.76563	    1001.66595	     760.88721	       0.00000	       0.00000
      14.90625	     927.87653	     779.03247	       0.00000	       0.00000
      15.04688	     862.06873	     620.61469	       0.00000	       0.00000
      15.18750	    1101.10620	     789.07532	       0.00000	       0.00000
      15.32813	    1254.34973	    1223.01306	       0.00000	       0.00000
      15.46875	     988.31824	     948.16827	       0.00000	       0.00000
      15.60938	     731.73956	     689.89807	       0.00000	       0.00000
      15.75000	     959.40515	     756.91412	       0.00000	       0.00000
      15.89063	     826.70917	     630.65039	       0.00000	       0.00000
      16.03125	    1323.00769	     888.31653	       0.00000	       0.00000
      16.17188	     932.91571	     916.48328	       0.00000	       0.00000
      16.31250	    1482.08643	    1775.36792	       0.00000	       0.00000
      16.45313	    1187.31946	    1459.53455	       0.00000	       0.00000
      16.59375	    1145.86890	     886.26245	       0.00000	       0.00000
      16.73438	     784.12854	     583.56360	       0.00000	       0.00000
      16.87500	    1032.22803	     940.19373	       0.00000	       0.00000
      17.01563	    1450.72131	    1156.40210	       0.00000	       0.00000
      17.15625	    1335.23950	    1330.18616	       0.00000	       0.00000
      17.29688	     975.57458	     647.38843	       0.00000	       0.00000
      17.43750	    1109.35083	     850.01453	       0.00000	       0.00000
      17.57813	     798.17993	     574.31683	       0.00000	       0.00000
      17.71875	     954.09589	     749.61481	       0.00000	       0.00000
      17.85938	    1230.41895	     996.90399	       0.00000	       0.00000
      18.00000	    1431.01941	    1414.16052	       0.00000	       0.00000
      18.14063	     967.93408	     672.07971	       0.00000	       0.00000
      18.28125	     914.30841	     821.54211	       0.00000	       0.00000
      18.42188	     840.00720	     736.33807	       0.00000	       0.00000
      18.56250	    1091.29077	     876.33337	       0.00000	       0.00000
      18.70313	     955.31836	     702.23657	       0.00000	       0.00000
      18.84375	     754.61133	     688.31311	       0.00000	       0.00000
      18.98438	    1069.52075	     870.04327	       0.00000	       0.00000
      19.12500	     568.74463	     463.63263	       0.00000	       0.00000
      19.26563	    1088.78906	     869.13354	       0.00000	       0.00000
      19.40625	    1050.53674	     696.54352	       0.00000	       0.00000
      19.54688	    1225.71387	    1088.61841	       0.00000	       0.00000
      19.68750	    1526.71399	    1676.09827	       0.00000	       0.00000
      19.82813	    1112.34302	    1051.29724	       0.00000	       0.00000
      19.96875	    1200.70984	     867.04395	       0.00000	       0.00000
      20.10938	     692.26483	     587.74280	       0.00000	       0.00000
      20.25000	     783.10504	     638.98743	       0.00000	       0.00000
      20.39063	     818.76306	     729.72107	       0.00000	       0.00000
      20.53125	     671.95178	     498.48044	       0.00000	       0.00000
      20.67188	     688.27753	     558.88660	       0.00000	       0.00000
      20.81250	     710.79395	     546.65466	       0.00000	       0.00000
      20.95313	    1169.27368	     820.48309	       0.00000	       0.00000
      21.09375	    1378.71582	    1189.57959	       0.00000	       0.00000
      21.23438	     946.95288	     859.29681	       0.00000	       0.00000
      21.37500	    1165.65601	     785.04535	       0.00000	       0.00000
      21.51563	    1096.28027	     905.94293	       0.00000	       0.00000
      21.65625	     962.88068	     980.11621	       0.00000	       0.00000
      21.79688	    1055.65405	     761.02222	       0.00000	       0.00000
      21.93750	     936.07141	     707.05542	       0.00000	       0.00000
      22.07813	     695.98914	     539.09235	       0.00000	       0.00000
      22.21875	     998.02698	     903.99554	       0.00000	       0.00000
      22.35938	    1489.86902	    1088.73926	       0.00000	       0.00000
      22.50000	     689.30103	     611.82990	       0.00000	       0.00000
      22.64063	    1213.63831	     926.12097	       0.00000	       0.00000
      22.78125	     878.36609	     917.54944	       0.00000	       0.00000
      22.92188	     958.23242	     725.54187	       0.00000	       0.00000
      23.06250	    1573.12561	    1137.97961	       0.00000	       0.00000
      23.20313	     744.28418	     515.69464	       0.00000	       0.00000
      23.34375	    1132.57800	    1027.01111	       0.00000	       0.00000
      23.48438	    1170.28296	     879.65253	       0.00000	       0.00000
      23.62500	    1307.20068	    1177.16296	       0.00000	       0.00000
      23.76563	    1164.31982	     830.63959	       0.00000	       0.00000
      23.90625	    1776.20654	    1202.12427	       0.00000	       0.00000
      24.04688	    1761.84241	    1254.69092	       0.00000	       0.00000
      24.18750	     874.83368	     836.92261	       0.00000	       0.00000
      24.32813	     707.68085	     567.23071	       0.00000	       0.00000
      24.46875	     788.05896	     621.73767	       0.00000	       0.00000
      24.60938	    1052.26392	     734.98767	       0.00000	       0.00000
      24.75000	    1491.08447	    1270.77502	       0.00000	       0.00000
      24.89063	    1198.33606	     942.06299	       0.00000	       0.00000
      25.03125	    1223.83752	     943.43469	       0.00000	       0.00000
      25.17188	    1162.53577	     880.02924	       0.00000	       0.00000
      25.31250	    1080.73633	     745.69855	       0.00000	       0.00000
      25.45313	     934.06708	     776.00470	       0.00000	       0.00000
      25.59375	    1325.39575	     852.67981	       0.00000	       0.00000
      25.73438	    1250.51172	     933.08630	       0.00000	       0.00000
      25.87500	     907.74115	     695.69061	       0.00000	       0.00000
      26.01563	     769.13184	     568.25421	       0.00000	       0.00000
      26.15625	     744.63959	     686.86316	       0.00000	       0.00000
      26.29688	     740.82996	     769.01807	       0.00000	       0.00000
      26.43750	     817.59747	     757.14154	       0.00000	       0.00000
      26.57813	     680.88580	     540.20819	       0.00000	       0.00000
      26.71875	     846.24048	     631.26874	       0.00000	       0.00000
      26.85938	    1017.91357	     665.59772	       0.00000	       0.00000
      27.00000	    1458.72424	    1327.17969	       0.00000	       0.00000
      27.14063	    1136.25964	     859.48163	       0.00000	       0.00000
      27.28125	    1197.46887	     829.33893	       0.00000	       0.00000
      27.42188	     660.62958	     668.91687	       0.00000	       0.00000
      27.56250	     937.80560	     686.08136	       0.00000	       0.00000
      27.70313	     840.66113	     662.60547	       0.00000	       0.00000
      27.84375	     956.49109	     767.21283	       0.00000	       0.00000
      27.98438	    1203.45337	     933.78992	       0.00000	       0.00000
      28.12500	    1052.67615	     740.79443	       0.00000	       0.00000
      28.26563	    1176.87866	    1015.07062	       0.00000	       0.00000
      28.40625	    1040.84937	     943.45605	       0.00000	       0.00000
      28.54688	    1299.00586	     937.06647	       0.00000	       0.00000
      28.68750	    1224.32788	     988.84418	       0.00000	       0.00000
      28.82813	    1123.61548	     946.46960	       0.00000	       0.00000
      28.96875	    1335.94324	    1124.66736	       0.00000	       0.00000
      29.10938	     735.65576	     567.57190	       0.00000	       0.00000
      29.25000	    1032.33459	     779.17462	       0.00000	       0.00000
      29.39063	    1158.05103	    1248.25867	       0.00000	       0.00000
      29.53125	    1057.38831	     790.21246	       0.00000	       0.00000
      29.67188	     687.50995	     519.14178	       0.00000	       0.00000
      29.81250	     929.11322	     737.73114	       0.00000	       0.00000
      29.95313	    1361.89246	    1280.56909	       0.00000	       0.00000
      30.09375	     931.03931	     868.72839	       0.00000	       0.00000
      30.23438	     987.89886	     728.54120	       0.00000	       0.00000
      30.37500	     857.29254	     708.26367	       0.00000	       0.00000
      30.51563	    1254.12231	     983.84052	       0.00000	       0.00000
      30.65625	     799.21759	     677.51691	       0.00000	       0.00000
      30.79688	    1841.45996	    1546.16711	       0.00000	       0.00000
      30.93750	    1771.38770	    1768.45947	       0.00000	       0.00000
      31.07813	     868.85632	     741.66864	       0.00000	       0.00000
      31.21875	     772.61444	     738.32819	       0.00000	       0.00000
      31.35938	    1350.62000	     994.01129	       0.00000	       0.00000
      31.50000	    1709.33972	    1558.88232	       0.00000	       0.00000
      31.64063	    1064.15466	    1010.86304	       0.00000	       0.00000
      31.78125	     741.33459	     613.15900	       0.00000	       0.00000
      31.92188	    1065.54773	     875.15350	       0.00000	       0.00000
      32.06250	    1099.93347	     838.59998	       0.00000	       0.00000
      32.20313	    1366.08582	     908.03253	       0.00000	       0.00000
      32.34375	    1066.10205	    1161.00769	       0.00000	       0.00000
      32.48438	    1272.85754	     860.42688	       0.00000	       0.00000
      32.62500	    1454.87915	    1010.67114	       0.00000	       0.00000
      32.76563	     742.28699	     565.04163	       0.00000	       0.00000
      32.90625	    1238.75598	    1007.67175	       0.00000	       0.00000
      33.04688	    1599.06775	    1313.84619	       0.00000	       0.00000
      33.18750	     571.33173	     463.19910	       0.00000	       0.00000
      33.32813	     872.06891	     777.62518	       0.00000	       0.00000
      33.46875	     883.44788	     637.16083	       0.00000	       0.00000
      33.60938	    1418.92969	    1023.48584	       0.00000	       0.00000
      33.75000	     988.68066	     855.24561	       0.00000	       0.00000
      33.89063	     966.43439	     892.75867	       0.00000	       0.00000
      34.03125	     760.95825	     656.82001	       0.00000	       0.00000
      34.17188	    1151.22083	     921.17419	       0.00000	       0.00000
      34.31250	     932.66693	     686.32300	       0.00000	       0.00000
      34.45313	    1184.61865	    1039.65527	       0.00000	       0.00000
      34.59375	    1003.32202	     821.28619	       0.00000	       0.00000
      34.73438	     807.18506	     741.14270	       0.00000	       0.00000
      34.87500	     823.27631	     590.88428	       0.00000	       0.00000
      35.01563	     958.43854	     727.03442	       0.00000	       0.00000
      35.15625	    1180.30444	    1141.56177	       0.00000	       0.00000
      35.29688	     876.09882	     781.36371	       0.00000	       0.00000
      35.43750	     696.18103	     667.21112	       0.00000	       0.00000
      35.57813	    1366.89612	    1089.94751	       0.00000	       0.00000
      35.71875	     990.79163	     870.06458	       0.00000	       0.00000

Monitor Diode	   3013.94
