ALV-7004 or ALV-7004/FAST Data
Date :	"04.06.2015"
Time :	"15:59:59"
Samplename : 	""
SampMemo(0) : 	""
SampMemo(1) : 	""
SampMemo(2) : 	""
SampMemo(3) : 	""
SampMemo(4) : 	""
SampMemo(5) : 	""
SampMemo(6) : 	""
SampMemo(7) : 	""
SampMemo(8) : 	""
SampMemo(9) : 	""
Temperature [K] :	     297.92518
Viscosity [cp]  :	       0.89000
Refractive Index:	       1.33200
Wavelength [nm] :	     632.80000
Angle [°]       :	      29.20000
Duration [s]    :	        37
Runs            :	         1
Mode            :	"C-CH0/1+1/0 "
MeanCR0 [kHz]   :	    1459.29309
MeanCR1 [kHz]   :	    1194.45349
MeanCR2 [kHz]   :	       0.00000
MeanCR3 [kHz]   :	       0.00000

"Correlation"
  2.50000E-005	  2.85461E-001	  2.84805E-001	  0.00000E+000	  0.00000E+000
  5.00000E-005	  2.86659E-001	  2.87355E-001	  0.00000E+000	  0.00000E+000
  7.50000E-005	  2.84629E-001	  2.84672E-001	  0.00000E+000	  0.00000E+000
  1.00000E-004	  2.83563E-001	  2.82702E-001	  0.00000E+000	  0.00000E+000
  1.25000E-004	  2.85635E-001	  2.85088E-001	  0.00000E+000	  0.00000E+000
  1.50000E-004	  2.84891E-001	  2.85516E-001	  0.00000E+000	  0.00000E+000
  1.75000E-004	  2.85372E-001	  2.84868E-001	  0.00000E+000	  0.00000E+000
  2.00000E-004	  2.84933E-001	  2.85409E-001	  0.00000E+000	  0.00000E+000
  2.25000E-004	  2.85179E-001	  2.84530E-001	  0.00000E+000	  0.00000E+000
  2.50000E-004	  2.84205E-001	  2.84662E-001	  0.00000E+000	  0.00000E+000
  2.75000E-004	  2.84980E-001	  2.84567E-001	  0.00000E+000	  0.00000E+000
  3.00000E-004	  2.85292E-001	  2.85665E-001	  0.00000E+000	  0.00000E+000
  3.25000E-004	  2.84221E-001	  2.84389E-001	  0.00000E+000	  0.00000E+000
  3.50000E-004	  2.84835E-001	  2.84232E-001	  0.00000E+000	  0.00000E+000
  3.75000E-004	  2.84883E-001	  2.84951E-001	  0.00000E+000	  0.00000E+000
  4.00000E-004	  2.84217E-001	  2.84537E-001	  0.00000E+000	  0.00000E+000
  4.50000E-004	  2.84586E-001	  2.83880E-001	  0.00000E+000	  0.00000E+000
  5.00000E-004	  2.84685E-001	  2.85228E-001	  0.00000E+000	  0.00000E+000
  5.50000E-004	  2.85648E-001	  2.86129E-001	  0.00000E+000	  0.00000E+000
  6.00000E-004	  2.84471E-001	  2.84059E-001	  0.00000E+000	  0.00000E+000
  6.50000E-004	  2.85336E-001	  2.85616E-001	  0.00000E+000	  0.00000E+000
  7.00000E-004	  2.84607E-001	  2.84190E-001	  0.00000E+000	  0.00000E+000
  7.50000E-004	  2.84562E-001	  2.84698E-001	  0.00000E+000	  0.00000E+000
  8.00000E-004	  2.84718E-001	  2.84572E-001	  0.00000E+000	  0.00000E+000
  9.00000E-004	  2.84687E-001	  2.84955E-001	  0.00000E+000	  0.00000E+000
  1.00000E-003	  2.85119E-001	  2.84677E-001	  0.00000E+000	  0.00000E+000
  1.10000E-003	  2.84533E-001	  2.84345E-001	  0.00000E+000	  0.00000E+000
  1.20000E-003	  2.85228E-001	  2.85176E-001	  0.00000E+000	  0.00000E+000
  1.30000E-003	  2.84547E-001	  2.83947E-001	  0.00000E+000	  0.00000E+000
  1.40000E-003	  2.85116E-001	  2.85150E-001	  0.00000E+000	  0.00000E+000
  1.50000E-003	  2.84786E-001	  2.84571E-001	  0.00000E+000	  0.00000E+000
  1.60000E-003	  2.84744E-001	  2.84965E-001	  0.00000E+000	  0.00000E+000
  1.80000E-003	  2.85280E-001	  2.85297E-001	  0.00000E+000	  0.00000E+000
  2.00000E-003	  2.84711E-001	  2.84604E-001	  0.00000E+000	  0.00000E+000
  2.20000E-003	  2.85143E-001	  2.85083E-001	  0.00000E+000	  0.00000E+000
  2.40000E-003	  2.84780E-001	  2.84933E-001	  0.00000E+000	  0.00000E+000
  2.60000E-003	  2.85094E-001	  2.84550E-001	  0.00000E+000	  0.00000E+000
  2.80000E-003	  2.84870E-001	  2.85144E-001	  0.00000E+000	  0.00000E+000
  3.00000E-003	  2.84523E-001	  2.84402E-001	  0.00000E+000	  0.00000E+000
  3.20000E-003	  2.84984E-001	  2.84771E-001	  0.00000E+000	  0.00000E+000
  3.60000E-003	  2.84558E-001	  2.84585E-001	  0.00000E+000	  0.00000E+000
  4.00000E-003	  2.84528E-001	  2.84541E-001	  0.00000E+000	  0.00000E+000
  4.40000E-003	  2.85021E-001	  2.85102E-001	  0.00000E+000	  0.00000E+000
  4.80000E-003	  2.84799E-001	  2.84781E-001	  0.00000E+000	  0.00000E+000
  5.20000E-003	  2.84998E-001	  2.85029E-001	  0.00000E+000	  0.00000E+000
  5.60000E-003	  2.84580E-001	  2.84535E-001	  0.00000E+000	  0.00000E+000
  6.00000E-003	  2.84696E-001	  2.84665E-001	  0.00000E+000	  0.00000E+000
  6.40000E-003	  2.84594E-001	  2.84442E-001	  0.00000E+000	  0.00000E+000
  7.20000E-003	  2.84755E-001	  2.84845E-001	  0.00000E+000	  0.00000E+000
  8.00000E-003	  2.84721E-001	  2.84770E-001	  0.00000E+000	  0.00000E+000
  8.80000E-003	  2.84890E-001	  2.84780E-001	  0.00000E+000	  0.00000E+000
  9.60000E-003	  2.84838E-001	  2.84669E-001	  0.00000E+000	  0.00000E+000
  1.04000E-002	  2.84698E-001	  2.84782E-001	  0.00000E+000	  0.00000E+000
  1.12000E-002	  2.84744E-001	  2.84808E-001	  0.00000E+000	  0.00000E+000
  1.20000E-002	  2.84770E-001	  2.84724E-001	  0.00000E+000	  0.00000E+000
  1.28000E-002	  2.84584E-001	  2.84590E-001	  0.00000E+000	  0.00000E+000
  1.44000E-002	  2.84730E-001	  2.84862E-001	  0.00000E+000	  0.00000E+000
  1.60000E-002	  2.84659E-001	  2.84664E-001	  0.00000E+000	  0.00000E+000
  1.76000E-002	  2.84462E-001	  2.84442E-001	  0.00000E+000	  0.00000E+000
  1.92000E-002	  2.84575E-001	  2.84609E-001	  0.00000E+000	  0.00000E+000
  2.08000E-002	  2.84538E-001	  2.84558E-001	  0.00000E+000	  0.00000E+000
  2.24000E-002	  2.84435E-001	  2.84455E-001	  0.00000E+000	  0.00000E+000
  2.40000E-002	  2.84549E-001	  2.84598E-001	  0.00000E+000	  0.00000E+000
  2.56000E-002	  2.84445E-001	  2.84405E-001	  0.00000E+000	  0.00000E+000
  2.88000E-002	  2.84494E-001	  2.84545E-001	  0.00000E+000	  0.00000E+000
  3.20000E-002	  2.84443E-001	  2.84421E-001	  0.00000E+000	  0.00000E+000
  3.52000E-002	  2.84365E-001	  2.84395E-001	  0.00000E+000	  0.00000E+000
  3.84000E-002	  2.84324E-001	  2.84294E-001	  0.00000E+000	  0.00000E+000
  4.16000E-002	  2.84292E-001	  2.84347E-001	  0.00000E+000	  0.00000E+000
  4.48000E-002	  2.84296E-001	  2.84415E-001	  0.00000E+000	  0.00000E+000
  4.80000E-002	  2.84198E-001	  2.84211E-001	  0.00000E+000	  0.00000E+000
  5.12000E-002	  2.84120E-001	  2.84055E-001	  0.00000E+000	  0.00000E+000
  5.76000E-002	  2.84060E-001	  2.84075E-001	  0.00000E+000	  0.00000E+000
  6.40000E-002	  2.83987E-001	  2.83992E-001	  0.00000E+000	  0.00000E+000
  7.04000E-002	  2.83821E-001	  2.83822E-001	  0.00000E+000	  0.00000E+000
  7.68000E-002	  2.83733E-001	  2.83724E-001	  0.00000E+000	  0.00000E+000
  8.32000E-002	  2.83673E-001	  2.83611E-001	  0.00000E+000	  0.00000E+000
  8.96000E-002	  2.83577E-001	  2.83530E-001	  0.00000E+000	  0.00000E+000
  9.60000E-002	  2.83553E-001	  2.83583E-001	  0.00000E+000	  0.00000E+000
  1.02400E-001	  2.83485E-001	  2.83517E-001	  0.00000E+000	  0.00000E+000
  1.15200E-001	  2.83299E-001	  2.83263E-001	  0.00000E+000	  0.00000E+000
  1.28000E-001	  2.83136E-001	  2.83135E-001	  0.00000E+000	  0.00000E+000
  1.40800E-001	  2.82977E-001	  2.82955E-001	  0.00000E+000	  0.00000E+000
  1.53600E-001	  2.82798E-001	  2.82790E-001	  0.00000E+000	  0.00000E+000
  1.66400E-001	  2.82677E-001	  2.82642E-001	  0.00000E+000	  0.00000E+000
  1.79200E-001	  2.82525E-001	  2.82493E-001	  0.00000E+000	  0.00000E+000
  1.92000E-001	  2.82404E-001	  2.82416E-001	  0.00000E+000	  0.00000E+000
  2.04800E-001	  2.82222E-001	  2.82241E-001	  0.00000E+000	  0.00000E+000
  2.30400E-001	  2.81877E-001	  2.81872E-001	  0.00000E+000	  0.00000E+000
  2.56000E-001	  2.81573E-001	  2.81596E-001	  0.00000E+000	  0.00000E+000
  2.81600E-001	  2.81259E-001	  2.81259E-001	  0.00000E+000	  0.00000E+000
  3.07200E-001	  2.80925E-001	  2.80934E-001	  0.00000E+000	  0.00000E+000
  3.32800E-001	  2.80603E-001	  2.80609E-001	  0.00000E+000	  0.00000E+000
  3.58400E-001	  2.80258E-001	  2.80290E-001	  0.00000E+000	  0.00000E+000
  3.84000E-001	  2.80040E-001	  2.80043E-001	  0.00000E+000	  0.00000E+000
  4.09600E-001	  2.79698E-001	  2.79717E-001	  0.00000E+000	  0.00000E+000
  4.60800E-001	  2.79078E-001	  2.79082E-001	  0.00000E+000	  0.00000E+000
  5.12000E-001	  2.78469E-001	  2.78500E-001	  0.00000E+000	  0.00000E+000
  5.63200E-001	  2.77880E-001	  2.77907E-001	  0.00000E+000	  0.00000E+000
  6.14400E-001	  2.77262E-001	  2.77280E-001	  0.00000E+000	  0.00000E+000
  6.65600E-001	  2.76656E-001	  2.76645E-001	  0.00000E+000	  0.00000E+000
  7.16800E-001	  2.76090E-001	  2.76102E-001	  0.00000E+000	  0.00000E+000
  7.68000E-001	  2.75456E-001	  2.75454E-001	  0.00000E+000	  0.00000E+000
  8.19200E-001	  2.74776E-001	  2.74762E-001	  0.00000E+000	  0.00000E+000
  9.21600E-001	  2.73619E-001	  2.73592E-001	  0.00000E+000	  0.00000E+000
  1.02400E+000	  2.72454E-001	  2.72416E-001	  0.00000E+000	  0.00000E+000
  1.12640E+000	  2.71307E-001	  2.71285E-001	  0.00000E+000	  0.00000E+000
  1.22880E+000	  2.70145E-001	  2.70104E-001	  0.00000E+000	  0.00000E+000
  1.33120E+000	  2.69018E-001	  2.69009E-001	  0.00000E+000	  0.00000E+000
  1.43360E+000	  2.67896E-001	  2.67876E-001	  0.00000E+000	  0.00000E+000
  1.53600E+000	  2.66797E-001	  2.66773E-001	  0.00000E+000	  0.00000E+000
  1.63840E+000	  2.65681E-001	  2.65658E-001	  0.00000E+000	  0.00000E+000
  1.84320E+000	  2.63494E-001	  2.63436E-001	  0.00000E+000	  0.00000E+000
  2.04800E+000	  2.61312E-001	  2.61237E-001	  0.00000E+000	  0.00000E+000
  2.25280E+000	  2.59168E-001	  2.59060E-001	  0.00000E+000	  0.00000E+000
  2.45760E+000	  2.57056E-001	  2.56926E-001	  0.00000E+000	  0.00000E+000
  2.66240E+000	  2.54969E-001	  2.54849E-001	  0.00000E+000	  0.00000E+000
  2.86720E+000	  2.52898E-001	  2.52760E-001	  0.00000E+000	  0.00000E+000
  3.07200E+000	  2.50865E-001	  2.50735E-001	  0.00000E+000	  0.00000E+000
  3.27680E+000	  2.48858E-001	  2.48719E-001	  0.00000E+000	  0.00000E+000
  3.68640E+000	  2.44922E-001	  2.44795E-001	  0.00000E+000	  0.00000E+000
  4.09600E+000	  2.41104E-001	  2.40955E-001	  0.00000E+000	  0.00000E+000
  4.50560E+000	  2.37356E-001	  2.37216E-001	  0.00000E+000	  0.00000E+000
  4.91520E+000	  2.33667E-001	  2.33521E-001	  0.00000E+000	  0.00000E+000
  5.32480E+000	  2.30028E-001	  2.29882E-001	  0.00000E+000	  0.00000E+000
  5.73440E+000	  2.26451E-001	  2.26307E-001	  0.00000E+000	  0.00000E+000
  6.14400E+000	  2.22948E-001	  2.22840E-001	  0.00000E+000	  0.00000E+000
  6.55360E+000	  2.19519E-001	  2.19438E-001	  0.00000E+000	  0.00000E+000
  7.37280E+000	  2.12877E-001	  2.12837E-001	  0.00000E+000	  0.00000E+000
  8.19200E+000	  2.06473E-001	  2.06420E-001	  0.00000E+000	  0.00000E+000
  9.01120E+000	  2.00264E-001	  2.00179E-001	  0.00000E+000	  0.00000E+000
  9.83040E+000	  1.94315E-001	  1.94227E-001	  0.00000E+000	  0.00000E+000
  1.06496E+001	  1.88558E-001	  1.88476E-001	  0.00000E+000	  0.00000E+000
  1.14688E+001	  1.82999E-001	  1.82943E-001	  0.00000E+000	  0.00000E+000
  1.22880E+001	  1.77662E-001	  1.77584E-001	  0.00000E+000	  0.00000E+000
  1.31072E+001	  1.72622E-001	  1.72541E-001	  0.00000E+000	  0.00000E+000
  1.47456E+001	  1.62731E-001	  1.62699E-001	  0.00000E+000	  0.00000E+000
  1.63840E+001	  1.53916E-001	  1.53784E-001	  0.00000E+000	  0.00000E+000
  1.80224E+001	  1.45651E-001	  1.45442E-001	  0.00000E+000	  0.00000E+000
  1.96608E+001	  1.37643E-001	  1.37450E-001	  0.00000E+000	  0.00000E+000
  2.12992E+001	  1.30253E-001	  1.29993E-001	  0.00000E+000	  0.00000E+000
  2.29376E+001	  1.23346E-001	  1.23017E-001	  0.00000E+000	  0.00000E+000
  2.45760E+001	  1.16881E-001	  1.16513E-001	  0.00000E+000	  0.00000E+000
  2.62144E+001	  1.10959E-001	  1.10484E-001	  0.00000E+000	  0.00000E+000
  2.94912E+001	  9.96236E-002	  9.88386E-002	  0.00000E+000	  0.00000E+000
  3.27680E+001	  8.89044E-002	  8.78555E-002	  0.00000E+000	  0.00000E+000
  3.60448E+001	  7.86787E-002	  7.74702E-002	  0.00000E+000	  0.00000E+000
  3.93216E+001	  7.00074E-002	  6.87277E-002	  0.00000E+000	  0.00000E+000
  4.25984E+001	  6.22715E-002	  6.12186E-002	  0.00000E+000	  0.00000E+000
  4.58752E+001	  5.56245E-002	  5.50471E-002	  0.00000E+000	  0.00000E+000
  4.91520E+001	  5.02482E-002	  4.99195E-002	  0.00000E+000	  0.00000E+000
  5.24288E+001	  4.58517E-002	  4.58902E-002	  0.00000E+000	  0.00000E+000
  5.89824E+001	  3.84263E-002	  3.90431E-002	  0.00000E+000	  0.00000E+000
  6.55360E+001	  3.32608E-002	  3.39636E-002	  0.00000E+000	  0.00000E+000
  7.20896E+001	  2.94451E-002	  2.99362E-002	  0.00000E+000	  0.00000E+000
  7.86432E+001	  2.53555E-002	  2.56738E-002	  0.00000E+000	  0.00000E+000
  8.51968E+001	  2.00503E-002	  2.07258E-002	  0.00000E+000	  0.00000E+000
  9.17504E+001	  1.70600E-002	  1.83064E-002	  0.00000E+000	  0.00000E+000
  9.83040E+001	  1.47786E-002	  1.64885E-002	  0.00000E+000	  0.00000E+000
  1.04858E+002	  1.14173E-002	  1.30120E-002	  0.00000E+000	  0.00000E+000
  1.17965E+002	  4.02379E-003	  6.87050E-003	  0.00000E+000	  0.00000E+000
  1.31072E+002	 -9.62612E-004	  2.21838E-003	  0.00000E+000	  0.00000E+000
  1.44179E+002	  1.64250E-003	  4.37399E-003	  0.00000E+000	  0.00000E+000
  1.57286E+002	  6.80763E-003	  9.45998E-003	  0.00000E+000	  0.00000E+000
  1.70394E+002	  1.23839E-002	  1.51726E-002	  0.00000E+000	  0.00000E+000
  1.83501E+002	  1.48453E-002	  1.81134E-002	  0.00000E+000	  0.00000E+000
  1.96608E+002	  1.41575E-002	  1.77085E-002	  0.00000E+000	  0.00000E+000
  2.09715E+002	  8.33780E-003	  1.07642E-002	  0.00000E+000	  0.00000E+000
  2.35930E+002	  1.54077E-003	  3.50220E-003	  0.00000E+000	  0.00000E+000
  2.62144E+002	 -3.81832E-003	 -3.19508E-003	  0.00000E+000	  0.00000E+000
  2.88358E+002	 -3.26819E-003	 -4.42734E-003	  0.00000E+000	  0.00000E+000
  3.14573E+002	 -8.74003E-003	 -7.99006E-003	  0.00000E+000	  0.00000E+000
  3.40787E+002	 -1.12740E-002	 -1.14998E-002	  0.00000E+000	  0.00000E+000
  3.67002E+002	 -3.54957E-003	 -4.92393E-003	  0.00000E+000	  0.00000E+000
  3.93216E+002	  2.66434E-003	  9.89714E-004	  0.00000E+000	  0.00000E+000
  4.19430E+002	  3.59038E-003	  1.41302E-003	  0.00000E+000	  0.00000E+000
  4.71859E+002	  2.20165E-004	 -4.40411E-005	  0.00000E+000	  0.00000E+000
  5.24288E+002	  2.08771E-003	  2.50652E-003	  0.00000E+000	  0.00000E+000
  5.76717E+002	  4.59781E-003	  5.16138E-003	  0.00000E+000	  0.00000E+000
  6.29146E+002	 -8.44850E-003	 -4.20291E-003	  0.00000E+000	  0.00000E+000
  6.81574E+002	 -2.89305E-003	  3.19204E-005	  0.00000E+000	  0.00000E+000
  7.34003E+002	 -6.87748E-003	 -8.19288E-003	  0.00000E+000	  0.00000E+000
  7.86432E+002	 -1.38967E-002	 -1.44119E-002	  0.00000E+000	  0.00000E+000
  8.38861E+002	 -5.06758E-003	 -2.34017E-003	  0.00000E+000	  0.00000E+000
  9.43718E+002	  2.38162E-003	  5.44405E-003	  0.00000E+000	  0.00000E+000
  1.04858E+003	  5.60877E-003	  1.84443E-003	  0.00000E+000	  0.00000E+000
  1.15343E+003	  1.16033E-003	  2.00060E-003	  0.00000E+000	  0.00000E+000
  1.25829E+003	 -4.21359E-003	 -6.77271E-003	  0.00000E+000	  0.00000E+000
  1.36315E+003	  5.46046E-003	  6.37976E-003	  0.00000E+000	  0.00000E+000
  1.46801E+003	  1.31072E-003	  3.91811E-003	  0.00000E+000	  0.00000E+000
  1.57286E+003	  3.17121E-003	  7.45692E-003	  0.00000E+000	  0.00000E+000
  1.67772E+003	  2.22761E-003	  3.67652E-003	  0.00000E+000	  0.00000E+000
  1.88744E+003	 -4.30495E-003	 -5.52199E-003	  0.00000E+000	  0.00000E+000
  2.09715E+003	 -3.16345E-003	 -1.96458E-003	  0.00000E+000	  0.00000E+000
  2.30687E+003	 -3.64481E-003	 -2.50022E-003	  0.00000E+000	  0.00000E+000
  2.51658E+003	  5.59535E-003	  6.50366E-003	  0.00000E+000	  0.00000E+000
  2.72630E+003	  3.10480E-004	 -4.40780E-004	  0.00000E+000	  0.00000E+000
  2.93601E+003	 -8.52400E-003	 -9.22330E-003	  0.00000E+000	  0.00000E+000
  3.14573E+003	  1.34046E-003	  2.56842E-003	  0.00000E+000	  0.00000E+000
  3.35544E+003	  1.96811E-004	  8.31812E-004	  0.00000E+000	  0.00000E+000
  3.77487E+003	  3.19107E-003	  6.55839E-003	  0.00000E+000	  0.00000E+000
  4.19430E+003	  9.94939E-003	  1.11617E-002	  0.00000E+000	  0.00000E+000
  4.61373E+003	  1.73649E-003	  7.01195E-004	  0.00000E+000	  0.00000E+000
  5.03317E+003	 -4.20573E-003	 -4.13957E-003	  0.00000E+000	  0.00000E+000
  5.45260E+003	 -4.22649E-003	 -3.17090E-003	  0.00000E+000	  0.00000E+000
  5.87203E+003	 -1.06718E-003	 -7.37016E-004	  0.00000E+000	  0.00000E+000

"Count Rate"
       0.14453	    1769.23792	    1300.87524	       0.00000	       0.00000
       0.28906	    1859.60461	    1572.78430	       0.00000	       0.00000
       0.43359	    2091.39990	    1664.11914	       0.00000	       0.00000
       0.57813	    1726.55835	    1931.74023	       0.00000	       0.00000
       0.72266	    1143.82996	     977.37164	       0.00000	       0.00000
       0.86719	     899.57172	     616.16113	       0.00000	       0.00000
       1.01172	    1209.13232	    1178.02344	       0.00000	       0.00000
       1.15625	     786.42328	     673.80737	       0.00000	       0.00000
       1.30078	    1017.24335	     707.32312	       0.00000	       0.00000
       1.44531	    1425.85034	    1031.44226	       0.00000	       0.00000
       1.58984	    1210.25281	    1203.10840	       0.00000	       0.00000
       1.73438	    1086.00391	     913.36951	       0.00000	       0.00000
       1.87891	    1245.15173	    1177.12439	       0.00000	       0.00000
       2.02344	    1254.56470	    1031.75342	       0.00000	       0.00000
       2.16797	     970.94653	     763.51001	       0.00000	       0.00000
       2.31250	    1121.26245	     886.42413	       0.00000	       0.00000
       2.45703	     991.52216	     839.33887	       0.00000	       0.00000
       2.60156	    1288.70288	     998.43829	       0.00000	       0.00000
       2.74609	    1997.06335	    1531.55701	       0.00000	       0.00000
       2.89063	    1361.22571	     924.41461	       0.00000	       0.00000
       3.03516	    2374.81738	    1544.17908	       0.00000	       0.00000
       3.17969	    1197.31262	    1093.66699	       0.00000	       0.00000
       3.32422	     957.03125	     859.35425	       0.00000	       0.00000
       3.46875	     730.12567	     551.12152	       0.00000	       0.00000
       3.61328	    1622.40088	    1321.22961	       0.00000	       0.00000
       3.75781	    1311.02820	    1263.88770	       0.00000	       0.00000
       3.90234	    1608.99731	    1323.90613	       0.00000	       0.00000
       4.04688	    1468.22571	     975.83630	       0.00000	       0.00000
       4.19141	    1461.42017	    1235.84253	       0.00000	       0.00000
       4.33594	    1458.74365	    1104.20032	       0.00000	       0.00000
       4.48047	    1369.58044	    1079.47498	       0.00000	       0.00000
       4.62500	     836.18506	     648.36969	       0.00000	       0.00000
       4.76953	    1235.35156	    1055.83557	       0.00000	       0.00000
       4.91406	    1391.94739	    1103.68164	       0.00000	       0.00000
       5.05859	    1003.00299	     788.42896	       0.00000	       0.00000
       5.20313	    1824.24219	    1494.52100	       0.00000	       0.00000
       5.34766	    1677.95837	    1319.09241	       0.00000	       0.00000
       5.49219	    1302.38306	    1266.57800	       0.00000	       0.00000
       5.63672	    1325.44153	    1037.12732	       0.00000	       0.00000
       5.78125	     807.46228	     688.06158	       0.00000	       0.00000
       5.92578	     809.86218	     662.72766	       0.00000	       0.00000
       6.07031	     892.60022	     815.60950	       0.00000	       0.00000
       6.21484	    1281.68982	    1108.77881	       0.00000	       0.00000
       6.35938	    1134.22339	    1019.74701	       0.00000	       0.00000
       6.50391	    1428.41626	     937.45160	       0.00000	       0.00000
       6.64844	     889.13525	     711.38287	       0.00000	       0.00000
       6.79297	    1271.56458	    1184.97424	       0.00000	       0.00000
       6.93750	    1020.39716	     920.59686	       0.00000	       0.00000
       7.08203	    1832.91516	    1385.40466	       0.00000	       0.00000
       7.22656	    1508.59534	    1489.47217	       0.00000	       0.00000
       7.37109	     896.00989	     789.22430	       0.00000	       0.00000
       7.51563	    1743.40613	    1102.25000	       0.00000	       0.00000
       7.66016	    1979.74524	    1585.50317	       0.00000	       0.00000
       7.80469	    1336.12012	    1187.34644	       0.00000	       0.00000
       7.94922	    1559.00037	    1374.97510	       0.00000	       0.00000
       8.09375	    1239.95776	     913.95734	       0.00000	       0.00000
       8.23828	    1094.75281	     751.24072	       0.00000	       0.00000
       8.38281	    1551.60010	    1088.65271	       0.00000	       0.00000
       8.52734	    1379.17322	    1329.79175	       0.00000	       0.00000
       8.67188	    1511.97046	    1315.86951	       0.00000	       0.00000
       8.81641	    1204.13196	    1022.05011	       0.00000	       0.00000
       8.96094	    1074.18420	     913.37640	       0.00000	       0.00000
       9.10547	    1329.27307	    1266.46045	       0.00000	       0.00000
       9.25000	     999.57257	     880.89117	       0.00000	       0.00000
       9.39453	    1007.20111	     893.28491	       0.00000	       0.00000
       9.53906	    1616.64661	    1324.66687	       0.00000	       0.00000
       9.68359	    1722.37402	    1098.66040	       0.00000	       0.00000
       9.82813	    2051.65259	    1375.65283	       0.00000	       0.00000
       9.97266	     813.94269	     669.90668	       0.00000	       0.00000
      10.11719	    1885.13904	    1637.72021	       0.00000	       0.00000
      10.26172	     687.81952	     513.53217	       0.00000	       0.00000
      10.40625	     912.83691	     640.49219	       0.00000	       0.00000
      10.55078	    1340.35278	    1013.30115	       0.00000	       0.00000
      10.69531	     941.02032	     674.63037	       0.00000	       0.00000
      10.83984	     980.36639	     752.42340	       0.00000	       0.00000
      10.98438	    2160.03589	    1686.09875	       0.00000	       0.00000
      11.12891	    1902.83057	    1477.03687	       0.00000	       0.00000
      11.27344	    2080.97729	    1874.79944	       0.00000	       0.00000
      11.41797	    1082.43518	    1007.93420	       0.00000	       0.00000
      11.56250	    2894.83691	    1813.67432	       0.00000	       0.00000
      11.70703	    1357.29736	    1088.53516	       0.00000	       0.00000
      11.85156	     657.07025	     519.32098	       0.00000	       0.00000
      11.99609	    1314.83215	    1231.15344	       0.00000	       0.00000
      12.14063	    1780.82947	    1550.88086	       0.00000	       0.00000
      12.28516	    2073.47314	    1715.07751	       0.00000	       0.00000
      12.42969	    1092.87854	     894.72351	       0.00000	       0.00000
      12.57422	    1270.52026	    1092.87158	       0.00000	       0.00000
      12.71875	    1284.08972	     878.68494	       0.00000	       0.00000
      12.86328	    1122.52820	     958.61505	       0.00000	       0.00000
      13.00781	     819.72461	     599.12659	       0.00000	       0.00000
      13.15234	    1387.29272	    1473.06018	       0.00000	       0.00000
      13.29688	    1320.04004	    1064.26636	       0.00000	       0.00000
      13.44141	    1312.05176	    1033.04675	       0.00000	       0.00000
      13.58594	    1224.58313	     870.30255	       0.00000	       0.00000
      13.73047	    1969.46094	    1707.53198	       0.00000	       0.00000
      13.87500	     863.15814	     825.18146	       0.00000	       0.00000
      14.01953	     859.78302	     762.07147	       0.00000	       0.00000
      14.16406	     937.02966	     808.30603	       0.00000	       0.00000
      14.30859	     905.61646	     789.36267	       0.00000	       0.00000
      14.45313	     917.89960	     643.74280	       0.00000	       0.00000
      14.59766	     828.49432	     671.91925	       0.00000	       0.00000
      14.74219	    1414.03760	    1001.60590	       0.00000	       0.00000
      14.88672	    1853.22791	    1505.27563	       0.00000	       0.00000
      15.03125	     952.18298	     670.66052	       0.00000	       0.00000
      15.17578	    1502.02502	    1503.29761	       0.00000	       0.00000
      15.32031	    1867.10864	    1920.62585	       0.00000	       0.00000
      15.46484	    1127.28650	    1038.11633	       0.00000	       0.00000
      15.60938	    1321.03589	    1112.26453	       0.00000	       0.00000
      15.75391	    1104.17261	     841.09558	       0.00000	       0.00000
      15.89844	    1855.29578	    1555.93652	       0.00000	       0.00000
      16.04297	    1502.58521	    1049.61096	       0.00000	       0.00000
      16.18750	     938.29535	     810.02124	       0.00000	       0.00000
      16.33203	    1559.78882	    1204.29797	       0.00000	       0.00000
      16.47656	    2358.32227	    2219.66016	       0.00000	       0.00000
      16.62109	     621.01630	     483.55060	       0.00000	       0.00000
      16.76563	    1103.40491	     805.03467	       0.00000	       0.00000
      16.91016	     993.02985	     826.04596	       0.00000	       0.00000
      17.05469	    1297.23047	    1315.11572	       0.00000	       0.00000
      17.19922	    1025.77795	     655.22363	       0.00000	       0.00000
      17.34375	    1366.87622	    1550.51428	       0.00000	       0.00000
      17.48828	     944.92102	     880.43469	       0.00000	       0.00000
      17.63281	     654.05481	     585.96515	       0.00000	       0.00000
      17.77734	     868.46973	     743.97876	       0.00000	       0.00000
      17.92188	    1587.81311	    1627.10388	       0.00000	       0.00000
      18.06641	    1501.23657	     962.53650	       0.00000	       0.00000
      18.21094	    1253.31970	    1028.77258	       0.00000	       0.00000
      18.35547	    1252.87708	     870.61377	       0.00000	       0.00000
      18.50000	     996.61243	     961.92786	       0.00000	       0.00000
      18.64453	    1121.76050	     766.25574	       0.00000	       0.00000
      18.78906	     835.74939	     661.75250	       0.00000	       0.00000
      18.93359	    1243.68555	    1051.56824	       0.00000	       0.00000
      19.07813	    1214.22266	     980.47705	       0.00000	       0.00000
      19.22266	    1204.98962	     876.18127	       0.00000	       0.00000
      19.36719	     954.43073	     747.42993	       0.00000	       0.00000
      19.51172	    2502.34448	    2430.52710	       0.00000	       0.00000
      19.65625	    1463.40515	    1300.90295	       0.00000	       0.00000
      19.80078	    1205.55664	     970.82898	       0.00000	       0.00000
      19.94531	    1001.26703	     851.93317	       0.00000	       0.00000
      20.08984	    1297.05762	    1051.34692	       0.00000	       0.00000
      20.23438	     785.75934	     612.87598	       0.00000	       0.00000
      20.37891	    1311.21497	     845.58417	       0.00000	       0.00000
      20.52344	    1193.52258	     866.36029	       0.00000	       0.00000
      20.66797	    1154.92346	     898.82477	       0.00000	       0.00000
      20.81250	    1199.89233	     835.77704	       0.00000	       0.00000
      20.95703	    1198.98633	     973.00067	       0.00000	       0.00000
      21.10156	     823.99878	     729.50323	       0.00000	       0.00000
      21.24609	    1360.58948	    1188.59131	       0.00000	       0.00000
      21.39063	    2108.85620	    1628.81213	       0.00000	       0.00000
      21.53516	    1358.38318	    1203.57178	       0.00000	       0.00000
      21.67969	     988.57587	     856.28345	       0.00000	       0.00000
      21.82422	     982.08850	     733.15497	       0.00000	       0.00000
      21.96875	     956.56787	     824.14404	       0.00000	       0.00000
      22.11328	    1717.75403	    1219.86621	       0.00000	       0.00000
      22.25781	     888.76178	     898.28534	       0.00000	       0.00000
      22.40234	    1105.23767	     859.58246	       0.00000	       0.00000
      22.54688	     946.46332	     718.99066	       0.00000	       0.00000
      22.69141	     537.26843	     462.48395	       0.00000	       0.00000
      22.83594	     710.70508	     565.77686	       0.00000	       0.00000
      22.98047	    1419.02417	    1338.79663	       0.00000	       0.00000
      23.12500	    1475.12805	    1101.24707	       0.00000	       0.00000
      23.26953	     779.61780	     616.78357	       0.00000	       0.00000
      23.41406	     713.61682	     564.44208	       0.00000	       0.00000
      23.55859	    1074.76514	     817.54602	       0.00000	       0.00000
      23.70313	    1370.68018	    1089.68323	       0.00000	       0.00000
      23.84766	    1904.77405	    1614.26746	       0.00000	       0.00000
      23.99219	    1491.36035	    1155.91943	       0.00000	       0.00000
      24.13672	    1518.02209	    1270.87292	       0.00000	       0.00000
      24.28125	    1548.50171	    1214.76904	       0.00000	       0.00000
      24.42578	    2167.22876	    1576.30469	       0.00000	       0.00000
      24.57031	    1734.88538	    1310.01843	       0.00000	       0.00000
      24.71484	    1302.25159	     916.93823	       0.00000	       0.00000
      24.85938	    1103.10059	     867.44617	       0.00000	       0.00000
      25.00391	    1827.96313	    1491.56091	       0.00000	       0.00000
      25.14844	    2057.79419	    1648.80676	       0.00000	       0.00000
      25.29297	     890.28333	     780.97333	       0.00000	       0.00000
      25.43750	    1912.36804	    1348.50000	       0.00000	       0.00000
      25.58203	    1262.40063	    1032.71484	       0.00000	       0.00000
      25.72656	     987.63525	     757.75580	       0.00000	       0.00000
      25.87109	     741.39215	     520.22009	       0.00000	       0.00000
      26.01563	    1092.01404	    1122.99158	       0.00000	       0.00000
      26.16016	    1788.09143	    1359.07483	       0.00000	       0.00000
      26.30469	    1906.71057	    1494.87366	       0.00000	       0.00000
      26.44922	    1390.30823	    1020.48010	       0.00000	       0.00000
      26.59375	     962.23907	     654.84326	       0.00000	       0.00000
      26.73828	    1465.46619	    1202.02258	       0.00000	       0.00000
      26.88281	    1522.33093	    1171.98560	       0.00000	       0.00000
      27.02734	    1970.53296	    1879.73755	       0.00000	       0.00000
      27.17188	     746.25421	     747.09796	       0.00000	       0.00000
      27.31641	     986.43182	     907.49768	       0.00000	       0.00000
      27.46094	    1203.68237	    1154.10730	       0.00000	       0.00000
      27.60547	    1000.89355	     910.63068	       0.00000	       0.00000
      27.75000	    1272.40149	    1052.81323	       0.00000	       0.00000
      27.89453	     985.80249	     801.98462	       0.00000	       0.00000
      28.03906	    1637.58875	    1124.76208	       0.00000	       0.00000
      28.18359	    1295.12793	    1003.68079	       0.00000	       0.00000
      28.32813	    1494.17517	    1590.36523	       0.00000	       0.00000
      28.47266	     659.15204	     555.86603	       0.00000	       0.00000
      28.61719	    1094.71130	     876.74841	       0.00000	       0.00000
      28.76172	    2050.14502	    1724.60791	       0.00000	       0.00000
      28.90625	    1344.40564	    1343.78320	       0.00000	       0.00000
      29.05078	    1274.96729	    1091.66125	       0.00000	       0.00000
      29.19531	    1375.94336	     989.53723	       0.00000	       0.00000
      29.33984	     950.58539	     688.43506	       0.00000	       0.00000
      29.48438	    1160.58093	     947.89496	       0.00000	       0.00000
      29.62891	    1531.42566	    1294.26343	       0.00000	       0.00000
      29.77344	     845.03088	     607.42603	       0.00000	       0.00000
      29.91797	    1104.89880	     836.24042	       0.00000	       0.00000
      30.06250	    1684.49426	    1295.20398	       0.00000	       0.00000
      30.20703	     971.20935	     801.32068	       0.00000	       0.00000
      30.35156	    1055.01257	     952.17609	       0.00000	       0.00000
      30.49609	    1463.21155	    1174.43396	       0.00000	       0.00000
      30.64063	    1587.33594	    1183.27979	       0.00000	       0.00000
      30.78516	    1193.68860	     854.03571	       0.00000	       0.00000
      30.92969	     893.15350	     856.26965	       0.00000	       0.00000
      31.07422	    1060.69763	     811.60504	       0.00000	       0.00000
      31.21875	     732.27661	     619.25269	       0.00000	       0.00000
      31.36328	    1047.72290	     993.42407	       0.00000	       0.00000
      31.50781	     871.89325	     816.27344	       0.00000	       0.00000
      31.65234	    1601.58325	    1289.56042	       0.00000	       0.00000
      31.79688	    1848.65625	    1536.11475	       0.00000	       0.00000
      31.94141	    2177.26392	    1935.10144	       0.00000	       0.00000
      32.08594	    1427.39966	    1211.69128	       0.00000	       0.00000
      32.23047	     726.28033	     631.52887	       0.00000	       0.00000
      32.37500	     569.58765	     488.00461	       0.00000	       0.00000
      32.51953	     787.64746	     598.48340	       0.00000	       0.00000
      32.66406	    1322.82715	    1213.01929	       0.00000	       0.00000
      32.80859	    1401.18738	    1286.55884	       0.00000	       0.00000
      32.95313	     802.51721	     623.98334	       0.00000	       0.00000
      33.09766	    1177.73987	     787.04572	       0.00000	       0.00000
      33.24219	    2480.42725	    1872.85596	       0.00000	       0.00000
      33.38672	     982.13690	     787.00421	       0.00000	       0.00000
      33.53125	    1289.82324	    1070.18665	       0.00000	       0.00000
      33.67578	     975.65649	     849.27740	       0.00000	       0.00000
      33.82031	    1111.80115	    1042.39050	       0.00000	       0.00000
      33.96484	    1774.70178	    1385.48071	       0.00000	       0.00000
      34.10938	     716.39020	     535.89905	       0.00000	       0.00000
      34.25391	     992.04083	     718.21606	       0.00000	       0.00000
      34.39844	    1045.91089	     894.67511	       0.00000	       0.00000
      34.54297	    1238.15955	     886.11981	       0.00000	       0.00000
      34.68750	     784.67346	     686.76825	       0.00000	       0.00000
      34.83203	    1298.50305	    1156.33435	       0.00000	       0.00000
      34.97656	     928.95160	     701.53424	       0.00000	       0.00000
      35.12109	    1193.08691	     933.54395	       0.00000	       0.00000
      35.26563	    1343.36816	    1104.11035	       0.00000	       0.00000
      35.41016	     918.90240	     719.14972	       0.00000	       0.00000
      35.55469	    1022.54803	     866.71997	       0.00000	       0.00000
      35.69922	     958.32458	     657.59589	       0.00000	       0.00000
      35.84375	     879.62549	     597.75031	       0.00000	       0.00000
      35.98828	    1003.89514	     807.80804	       0.00000	       0.00000
      36.13281	    1122.77710	     950.57153	       0.00000	       0.00000
      36.27734	     781.96234	     757.15405	       0.00000	       0.00000
      36.42188	    1227.68848	     957.18341	       0.00000	       0.00000
      36.56641	    1425.37317	     990.60229	       0.00000	       0.00000
      36.71094	     716.54236	     565.41034	       0.00000	       0.00000

Monitor Diode	   3003.95
